File: XANES-jupyter-notebook/xafsderivative/Fe_K_111/Fe_K_111.txt
# XDI/1.0 Demeter/0.9.26
# Demeter.output_filetype: multicolumn mu(E)
# Element.symbol: Fe
# Element.edge: K
# Column.1: energy eV
# Column.2: Fe-foil.txt
# Column.3: Fe2_SO4_3_xH2O.txt
# Column.4: Fe3N.txt
# Column.5: Fe3P.txt
# Column.6: Fe3_PO4_2_8H2O.txt
# Column.7: FeB.txt
# Column.8: FeBr3.txt
# Column.9: FeCl2.txt
# Column.10: FeCl3.txt
# Column.11: FeCl3_6H2O.txt
# Column.12: FeF3_3H2O.txt
# Column.13: FeMoO4.txt
# Column.14: FeO_2.txt
# Column.15: FeS.txt
# Column.16: FeS2.txt
# Column.17: FeSO4.txt
# Column.18: FeSO4_7H2O.txt
# Column.19: FeSe.txt
# Column.20: FeSi2.txt
# Column.21: FeTiO3.txt
# Column.22: FeWO4.txt
# Column.23: Fe_NO3_3_9H2O.txt
# Column.24: Fe_OH_Ac2.txt
# Column.25: LaFeO3.txt
# Column.26: NH4_2Fe_SO4_2_xH2O.txt
# Column.27: NH4_Fe_SO4_2_xH2O.txt
# Column.28: a-Fe2O3.txt
# Column.29: a-FeOOH.txt
# Column.30: approx_FeBr2.txt
# Column.31: approx_Fe_OH_3.txt
# Column.32: approx_g-FeOOH.txt
#------------------------
#  "energy  Fe-foil.txt  Fe2_SO4_3_xH2O.txt  Fe3N.txt  Fe3P.txt  Fe3_PO4_2_8H2O.txt  FeB.txt  FeBr3.txt  FeCl2.txt  FeCl3.txt  FeCl3_6H2O.txt  FeF3_3H2O.txt  FeMoO4.txt  FeO_2.txt  FeS.txt  FeS2.txt  FeSO4.txt  FeSO4_7H2O.txt  FeSe.txt  FeSi2.txt  FeTiO3.txt
  6786.51       1.09939e-05   0.000130156   7.73552e-05   7.09186e-05   0.000101944   7.74002e-05   0.00028418   0.000155748   0.000216147   0.000216389   6.80315e-05   0.000273758   0.000106891   0.000112935   0.000132058   0.000123504   0.000147847   0.000104942   0.000123748   0.00018545   0.000460831   0.00010752   8.0059e-05   0.000436363   0.000123123   0.000175514   5.7131e-05   6.1391e-05   0.000212872   6.42817e-05   7.75787e-05
  6951.53      -1.05663e-05   9.70387e-05   4.93163e-05   4.35827e-05   7.13345e-05   4.95182e-05   0.000238204   0.000120537   0.000175597   0.000175712   4.08176e-05   0.000229561   7.59837e-05   8.15908e-05   9.944e-05   9.09708e-05   0.000113455   7.50744e-05   9.17746e-05   0.000148813   0.000404918   7.61882e-05   5.17544e-05   0.000383157   9.10057e-05   0.00013839   3.06499e-05   3.46655e-05   0.000173243   3.69149e-05   4.90072e-05
  7077.32      -2.43164e-05   7.47549e-05   3.05882e-05   2.53541e-05   5.08214e-05   3.10327e-05   0.000207067   9.67796e-05   0.000148301   0.000148241   2.26205e-05   0.000199361   5.5427e-05   6.07089e-05   7.75634e-05   6.91427e-05   9.06624e-05   5.48176e-05   7.01156e-05   0.000124081   0.000366914   5.51997e-05   3.26923e-05   0.000346278   6.93804e-05   0.000113357   1.28295e-05   1.68284e-05   0.000146342   1.84689e-05   2.98707e-05
  7087.49      -2.47959e-05   7.308e-05   2.92703e-05   2.40333e-05   4.93965e-05   2.99451e-05   0.000204834   9.5227e-05   0.000146314   0.000146329   2.12838e-05   0.000197142   5.39504e-05   5.92171e-05   7.59418e-05   6.76687e-05   8.89367e-05   5.36152e-05   6.86877e-05   0.000122334   0.000363801   5.37527e-05   3.15548e-05   0.000343481   6.78083e-05   0.000111548   1.15851e-05   1.55205e-05   0.000144467   1.71108e-05   2.85694e-05
  7097.43      -2.42526e-05   7.1651e-05   2.84547e-05   2.3091e-05   4.83708e-05   2.92818e-05   0.000202907   9.38688e-05   0.000144765   0.000144716   2.02325e-05   0.000195285   5.289e-05   5.82125e-05   7.46853e-05   6.65867e-05   8.77883e-05   5.22972e-05   6.76118e-05   0.000120758   0.000361296   5.2595e-05   3.02894e-05   0.000341175   6.63612e-05   0.000110079   1.04252e-05   1.4374e-05   0.000142968   1.58897e-05   2.74428e-05
  7107.49      -9.97357e-06   7.08595e-05   3.06001e-05   2.49789e-05   4.8933e-05   3.32786e-05   0.000202441   9.41391e-05   0.000144441   0.000144378   1.94532e-05   0.000194782   5.35451e-05   5.93511e-05   7.52153e-05   6.71167e-05   8.85251e-05   5.301e-05   7.00649e-05   0.000120528   0.000360412   5.22908e-05   2.98763e-05   0.00033884   6.60363e-05   0.000109361   9.6661e-06   1.37095e-05   0.000143055   1.50271e-05   2.72172e-05
  7117.41       0.000219272   7.42267e-05   8.95896e-05   7.54134e-05   0.00010418   0.000117896   0.000266475   0.000179855   0.000168849   0.000166915   2.15449e-05   0.000232822   0.000114822   0.000161476   0.000157697   0.000119682   0.000147567   0.000105394   0.000146502   0.000152871   0.000407367   6.13463e-05   3.85531e-05   0.000345689   9.70251e-05   0.000116188   1.58126e-05   1.93796e-05   0.000230358   1.90509e-05   3.80168e-05
  7127.78       0.000445705   0.000234865   0.000159   9.36961e-05   0.000254709   0.000245526   0.000359683   0.000237516   0.000343627   0.000347727   0.000152661   0.000372862   0.000224628   0.000193077   0.00019005   0.000269006   0.000354769   0.000126752   0.000176925   0.000266149   0.000545125   0.000311748   0.000194218   0.000463516   0.000201659   0.000337999   0.000115378   0.00015845   0.000304054   0.000106016   0.000251809
  7137.91       0.000406981   0.000228358   0.000142261   9.38943e-05   0.000211303   0.000221227   0.000337118   0.000232134   0.000329655   0.000331139   0.000163383   0.00031895   0.000168185   0.000189452   0.000202578   0.000230637   0.000274844   0.00012234   0.000215666   0.000211233   0.000482232   0.000273851   0.000185102   0.000435812   0.00016087   0.00032427   0.000100089   0.00012896   0.000291065   8.8898e-05   0.000211984
  7147.98       0.000435986   0.000184356   0.000146305   9.33556e-05   0.000174983   0.000215064   0.000324418   0.000215177   0.000311162   0.000309016   0.000118255   0.000301572   0.000158765   0.000178164   0.00018458   0.000196046   0.000229189   0.000119086   0.00019502   0.000208962   0.000460077   0.000212896   0.000144324   0.00040839   0.00013163   0.000265918   8.37884e-05   0.00010435   0.000279669   7.30707e-05   0.000172527
  7158.07       0.000435869   0.000156108   0.000135646   8.73562e-05   0.00018796   0.000209142   0.000325586   0.000214431   0.000290668   0.000288676   9.12601e-05   0.000305187   0.000158932   0.000170095   0.000173569   0.000217433   0.000262156   0.000117279   0.000176714   0.000209613   0.000475808   0.000193317   0.000122608   0.000389919   0.000151173   0.000230011   6.91797e-05   8.57259e-05   0.000273478   6.17895e-05   0.000145299
  7181.98       0.00038754   0.000186108   0.000137815   8.83031e-05   0.00020112   0.000221231   0.000323889   0.000225233   0.000299715   0.000300008   0.000114916   0.000317399   0.000167285   0.000181093   0.000183444   0.00022571   0.000277429   0.000114079   0.000193818   0.000217599   0.00047881   0.000228277   0.000148312   0.00040824   0.000156011   0.000271197   8.48005e-05   0.000106589   0.00027749   7.30485e-05   0.000181727
  7235.41       0.000357461   0.000162173   0.00012486   7.75605e-05   0.000181413   0.000195781   0.00030652   0.000207868   0.000275582   0.000275007   9.62414e-05   0.000294178   0.000149805   0.000167202   0.000167335   0.000208672   0.000251706   0.000103759   0.000174597   0.000203186   0.000459235   0.000201444   0.000129354   0.000382365   0.000140132   0.000240836   6.93861e-05   8.96624e-05   0.000260127   6.02052e-05   0.000150363
  7307.57       0.000350805   0.00015059   0.000115797   6.64423e-05   0.000164703   0.000179749   0.000286102   0.000189504   0.000259553   0.000258254   8.78527e-05   0.000275536   0.0001403   0.000149821   0.000150269   0.000190122   0.000230517   9.26837e-05   0.000158166   0.000183537   0.000433561   0.00018569   0.000116405   0.000364949   0.000123537   0.000226441   5.73985e-05   7.70894e-05   0.000241283   4.91304e-05   0.00014023
  7391.9       0.000325197   0.000134315   9.96784e-05   5.43595e-05   0.000146725   0.000164016   0.000263973   0.000168936   0.000239828   0.000238038   7.3629e-05   0.000254291   0.000124951   0.000132613   0.000136509   0.000170455   0.000209901   8.0195e-05   0.000142388   0.000167023   0.00040691   0.000166963   0.000101741   0.000341685   0.000107624   0.00020719   4.44837e-05   6.46633e-05   0.000220056   3.75502e-05   0.000125636
  7488.63       0.000300871   0.000115224   8.40227e-05   4.15349e-05   0.000127664   0.000146446   0.000239849   0.000148409   0.000216162   0.000214162   5.81907e-05   0.000231051   0.000107706   0.000114795   0.00011834   0.000149892   0.000188085   6.63804e-05   0.000124842   0.000149061   0.000377925   0.000145933   8.50764e-05   0.000316908   9.11013e-05   0.000183984   3.17623e-05   4.98589e-05   0.000197596   2.44615e-05   0.000106147
  7605.07       0.000274519   9.4994e-05   6.66841e-05   2.72038e-05   0.000106661   0.000126358   0.000212428   0.00012612   0.000189598   0.00018741   4.15771e-05   0.000204905   8.87779e-05   9.5396e-05   9.93588e-05   0.00012763   0.000163806   5.07073e-05   0.000105068   0.000128835   0.000346502   0.000123359   6.67093e-05   0.00028843   7.26277e-05   0.000159722   1.64723e-05   3.32278e-05   0.000172657   9.88065e-06   8.53994e-05
  7734.48       0.000243259   7.52594e-05   5.04245e-05   1.2726e-05   8.59271e-05   0.000106495   0.000184692   0.000104234   0.00016309   0.000160943   2.52999e-05   0.000179213   7.0114e-05   7.59561e-05   7.98055e-05   0.000105553   0.000139779   3.44041e-05   8.51905e-05   0.000107722   0.000314075   0.000101273   4.86253e-05   0.000259918   5.41357e-05   0.000136069   2.06743e-06   1.7226e-05   0.000147929  -4.54276e-06   6.59784e-05
  7877.6       0.000212404   5.54667e-05   3.32334e-05  -2.03393e-06   6.53083e-05   8.63341e-05   0.000157177   8.23624e-05   0.000136803   0.00013491   9.16485e-06   0.000153437   5.19965e-05   5.66647e-05   6.05148e-05   8.37186e-05   0.000115739   1.86907e-05   6.58336e-05   8.67669e-05   0.000281322   7.93361e-05   3.06794e-05   0.000231028   3.57238e-05   0.00011234  -1.24341e-05   1.49582e-06   0.000123148  -1.9023e-05   4.67122e-05
  8036.87       0.000182372   3.57072e-05   1.66329e-05  -1.57947e-05   4.48176e-05   6.71619e-05   0.000130418   6.07193e-05   0.000110925   0.000109246  -6.62552e-06   0.000127475   3.42177e-05   3.77189e-05   4.1353e-05   6.21433e-05   9.23187e-05   3.098e-06   4.61986e-05   6.63231e-05   0.000247918   5.7897e-05   1.29919e-05   0.000201841   1.77423e-05   8.86179e-05  -2.65624e-05  -1.39656e-05   9.85271e-05  -3.34059e-05   2.76562e-05
  8211.35       0.000152826   1.62312e-05  -2.92694e-07  -2.89435e-05   2.49474e-05   4.77498e-05   0.000104209   3.96049e-05   8.57473e-05   8.40937e-05  -2.20718e-05   0.000102469   1.69882e-05   1.91096e-05   2.25114e-05   4.09822e-05   6.9137e-05  -1.27818e-05   2.67524e-05   4.61642e-05   0.000214685   3.69735e-05  -4.26512e-06   0.000172768   1.77474e-07   6.5188e-05  -4.0072e-05  -2.9095e-05   7.45465e-05  -4.73504e-05   9.0104e-06
  8399.54       0.000124336  -2.36073e-06  -1.67869e-05  -4.17772e-05   6.00622e-06   2.83981e-05   7.90124e-05   1.94391e-05   6.183e-05   6.00812e-05  -3.67108e-05   7.80343e-05  -2.11455e-07   1.10507e-06   4.41681e-06   2.08567e-05   4.68418e-05  -2.80876e-05   8.52085e-06   2.70905e-05   0.00018297   1.69779e-05  -2.04107e-05   0.000144559  -1.64519e-05   4.29334e-05  -5.28973e-05  -4.3473e-05   5.17933e-05  -6.02251e-05  -8.7743e-06
  8602.8       9.70475e-05  -1.99174e-05  -3.30338e-05  -5.59665e-05  -1.19819e-05   9.45596e-06   5.4617e-05   2.10004e-07   3.90057e-05   3.71882e-05  -5.18157e-05   5.47763e-05  -1.69476e-05  -1.57096e-05  -1.29344e-05   1.54658e-06   2.66128e-05  -4.25441e-05  -8.76319e-06   8.79484e-06   0.000152437  -2.16774e-06  -3.66492e-05   0.000117526  -3.30689e-05   2.16501e-05  -6.6857e-05  -5.74433e-05   3.01799e-05  -7.24207e-05  -2.55557e-05